# 171 angles,  1 tensor ranks for 0=projectile
@subtitle   "16O + 64Zn Coupled Channel Elab=44 MeV"                                        
@legend ON
@legend x1 0.2
@legend y1 0.8
@g0 type LOGY
@yaxis ticklabel format power
@xaxis label "Scattering angle (degrees)"
@yaxis label "Cross section (mb/sr)"
@legend string   0 "Partition=  1 Excit=  1 near/far= 1"
#legend string   0 "Lab energy =   44.0000"
@s0 linestyle   1
#  Theta       sigma       iT11        T20         T21         T22         Kyy for projectile
  10.000      0.1044E+07
   11.00      0.7139E+06
   12.00      0.5046E+06
   13.00      0.3668E+06
   14.00      0.2731E+06
   15.00      0.2076E+06
   16.00      0.1606E+06
   17.00      0.1262E+06
   18.00      0.1006E+06
   19.00      0.8119E+05
   20.00      0.6626E+05
   21.00      0.5462E+05
   22.00      0.4545E+05
   23.00      0.3813E+05
   24.00      0.3224E+05
   25.00      0.2745E+05
   26.00      0.2353E+05
   27.00      0.2028E+05
   28.00      0.1759E+05
   29.00      0.1533E+05
   30.00      0.1343E+05
   31.00      0.1181E+05
   32.00      0.1044E+05
   33.00       9259.    
   34.00       8245.    
   35.00       7368.    
   36.00       6607.    
   37.00       5943.    
   38.00       5362.    
   39.00       4852.    
   40.00       4403.    
   41.00       4005.    
   42.00       3653.    
   43.00       3339.    
   44.00       3059.    
   45.00       2809.    
   46.00       2584.    
   47.00       2382.    
   48.00       2201.    
   49.00       2037.    
   50.00       1889.    
   51.00       1755.    
   52.00       1632.    
   53.00       1520.    
   54.00       1418.    
   55.00       1325.    
   56.00       1239.    
   57.00       1161.    
   58.00       1090.    
   59.00       1025.    
   60.00       964.9    
   61.00       909.8    
   62.00       858.9    
   63.00       811.6    
   64.00       767.7    
   65.00       726.6    
   66.00       688.1    
   67.00       652.0    
   68.00       618.1    
   69.00       586.5    
   70.00       557.0    
   71.00       529.6    
   72.00       504.1    
   73.00       480.7    
   74.00       459.1    
   75.00       439.4    
   76.00       421.2    
   77.00       404.6    
   78.00       389.3    
   79.00       375.2    
   80.00       362.2    
   81.00       349.9    
   82.00       338.4    
   83.00       327.4    
   84.00       316.8    
   85.00       306.5    
   86.00       296.4    
   87.00       286.5    
   88.00       276.6    
   89.00       266.8    
   90.00       257.0    
   91.00       247.2    
   92.00       237.4    
   93.00       227.7    
   94.00       217.9    
   95.00       208.3    
   96.00       198.7    
   97.00       189.3    
   98.00       180.0    
   99.00       170.9    
  100.00       162.0    
   101.0       153.4    
   102.0       144.9    
   103.0       136.8    
   104.0       128.9    
   105.0       121.4    
   106.0       114.1    
   107.0       107.2    
   108.0       100.5    
   109.0       94.25    
   110.0       88.26    
   111.0       82.60    
   112.0       77.23    
   113.0       72.18    
   114.0       67.41    
   115.0       62.93    
   116.0       58.72    
   117.0       54.77    
   118.0       51.08    
   119.0       47.62    
   120.0       44.39    
   121.0       41.38    
   122.0       38.57    
   123.0       35.96    
   124.0       33.53    
   125.0       31.26    
   126.0       29.16    
   127.0       27.21    
   128.0       25.39    
   129.0       23.71    
   130.0       22.15    
   131.0       20.70    
   132.0       19.36    
   133.0       18.11    
   134.0       16.96    
   135.0       15.89    
   136.0       14.91    
   137.0       13.99    
   138.0       13.14    
   139.0       12.36    
   140.0       11.63    
   141.0       10.95    
   142.0       10.33    
   143.0       9.750    
   144.0       9.214    
   145.0       8.717    
   146.0       8.257    
   147.0       7.830    
   148.0       7.435    
   149.0       7.068    
   150.0       6.729    
   151.0       6.414    
   152.0       6.122    
   153.0       5.852    
   154.0       5.601    
   155.0       5.369    
   156.0       5.154    
   157.0       4.955    
   158.0       4.771    
   159.0       4.601    
   160.0       4.444    
   161.0       4.299    
   162.0       4.165    
   163.0       4.042    
   164.0       3.929    
   165.0       3.825    
   166.0       3.730    
   167.0       3.644    
   168.0       3.566    
   169.0       3.495    
   170.0       3.431    
   171.0       3.375    
   172.0       3.325    
   173.0       3.281    
   174.0       3.244    
   175.0       3.213    
   176.0       3.188    
   177.0       3.168    
   178.0       3.154    
   179.0       3.146    
   180.0       3.143    
 END
@legend string   1 "Partition=  1 Excit=  2 near/far= 1"
#legend string   0 "Lab energy =   44.0000"
@s1 linestyle   2
#  Theta       sigma       iT11        T20         T21         T22         Kyy for projectile
  10.000      0.5656    
   11.00      0.6335    
   12.00      0.6715    
   13.00      0.6482    
   14.00      0.7983    
   15.00      0.7545    
   16.00      0.9928    
   17.00       1.047    
   18.00       1.257    
   19.00       1.588    
   20.00       1.851    
   21.00       2.490    
   22.00       3.003    
   23.00       4.142    
   24.00       5.262    
   25.00       6.979    
   26.00       9.187    
   27.00       11.80    
   28.00       15.23    
   29.00       18.57    
   30.00       22.83    
   31.00       26.13    
   32.00       29.51    
   33.00       30.84    
   34.00       31.57    
   35.00       29.88    
   36.00       27.67    
   37.00       24.23    
   38.00       22.11    
   39.00       20.88    
   40.00       22.04    
   41.00       23.91    
   42.00       26.22    
   43.00       27.03    
   44.00       26.22    
   45.00       24.22    
   46.00       22.00    
   47.00       21.47    
   48.00       22.07    
   49.00       23.96    
   50.00       24.68    
   51.00       24.10    
   52.00       22.31    
   53.00       20.65    
   54.00       20.79    
   55.00       21.71    
   56.00       22.88    
   57.00       22.49    
   58.00       20.98    
   59.00       19.95    
   60.00       19.90    
   61.00       21.14    
   62.00       21.64    
   63.00       20.75    
   64.00       19.46    
   65.00       18.63    
   66.00       19.25    
   67.00       19.82    
   68.00       19.22    
   69.00       18.15    
   70.00       17.35    
   71.00       17.89    
   72.00       18.78    
   73.00       18.53    
   74.00       17.79    
   75.00       17.38    
   76.00       17.90    
   77.00       18.73    
   78.00       18.31    
   79.00       17.36    
   80.00       17.15    
   81.00       17.50    
   82.00       17.68    
   83.00       16.87    
   84.00       15.72    
   85.00       15.58    
   86.00       15.71    
   87.00       15.03    
   88.00       13.85    
   89.00       12.97    
   90.00       12.77    
   91.00       12.48    
   92.00       11.34    
   93.00       10.25    
   94.00       9.919    
   95.00       9.701    
   96.00       9.032    
   97.00       8.093    
   98.00       7.584    
   99.00       7.631    
  100.00       7.332    
   101.0       6.577    
   102.0       6.211    
   103.0       6.273    
   104.0       6.200    
   105.0       5.812    
   106.0       5.397    
   107.0       5.438    
   108.0       5.654    
   109.0       5.324    
   110.0       4.918    
   111.0       5.102    
   112.0       5.264    
   113.0       5.006    
   114.0       4.799    
   115.0       4.848    
   116.0       4.989    
   117.0       4.952    
   118.0       4.664    
   119.0       4.639    
   120.0       4.946    
   121.0       4.830    
   122.0       4.463    
   123.0       4.611    
   124.0       4.825    
   125.0       4.566    
   126.0       4.377    
   127.0       4.502    
   128.0       4.525    
   129.0       4.370    
   130.0       4.223    
   131.0       4.192    
   132.0       4.270    
   133.0       4.149    
   134.0       3.865    
   135.0       3.912    
   136.0       4.042    
   137.0       3.743    
   138.0       3.516    
   139.0       3.719    
   140.0       3.672    
   141.0       3.307    
   142.0       3.309    
   143.0       3.450    
   144.0       3.227    
   145.0       3.028    
   146.0       3.110    
   147.0       3.085    
   148.0       2.900    
   149.0       2.834    
   150.0       2.833    
   151.0       2.782    
   152.0       2.698    
   153.0       2.595    
   154.0       2.580    
   155.0       2.610    
   156.0       2.481    
   157.0       2.350    
   158.0       2.455    
   159.0       2.460    
   160.0       2.216    
   161.0       2.227    
   162.0       2.412    
   163.0       2.224    
   164.0       2.019    
   165.0       2.249    
   166.0       2.305    
   167.0       1.954    
   168.0       2.006    
   169.0       2.311    
   170.0       2.056    
   171.0       1.799    
   172.0       2.165    
   173.0       2.256    
   174.0       1.756    
   175.0       1.892    
   176.0       2.415    
   177.0       1.980    
   178.0       1.553    
   179.0       2.621    
   180.0       3.521    
 END
